
#A            B      C
#E(keV)     el0   el20
	       
  -0.5        0      0          -500               0 
   0.5      154      0	         500              50 
   1.5   191545     20	        1500             940 
   2.5   191479     30	        2500             380 
   3.5   193583      0	        3500             370 
   4.5   191515     50	        4500             200 
   5.5   192269     20	        5500             190 
   6.5   191904    100	        6500             270 
   7.5   192340     80	        7500             230 
   8.5   192390    110	        8500             420 
   9.5   194757     60	        9500             783 
  10.5   191779    260	       10500             360 
  11.5   193579    130	       11500             940 
  12.5   193108    120	       12500             230 
  13.5   193975    210	       13500             320 
  14.5   192622    260	       14500             240 
  15.5   194824    310	       15500             240 
  16.5   192503    220	       16500             220 
  17.5   193600    380	       17500             310 
  18.5   192618    400	       18500             350 
  19.5   194171    240	       19500             260 
  20.5   180351    370	       20500             280 
  21.5   187259    290	       21500             340 
  22.5   182099    550	       22500             332 
  23.5   177801    400	       23500             390 
  24.5   184511    490	       24500             490 
  25.5   176998    480	       25500             570 
  26.5   174913    400	       26500             530 
  27.5   178586    550	       27500             470 
  28.5   176187    600	       28500             500 
  29.5   176328    610	       29500             330 
  30.5   176438    670	       30500             410 
  31.5   177343    680	       31500             620 
  32.5   174934    840	       32500             410 
  33.5   174282    750	       33500             460 
  34.5   175896    790	       34500             500 
  35.5   176908    760	       35500             520 
  36.5   175307    790	       36500             510 
  37.5   176771   1060	       37500             560 
  38.5   179799   1010	       38500             550 
  39.5   173859    980	       39500             490 
  40.5   181314   4470	       40500             480 
  41.5   176076   5270	       41500             560 
  42.5   178347   5090	       42500             460 
  43.5   184251   5320	       43500             580 
  44.5   182869   5200	       44500             560 
  45.5   183554   5180	       45500             470 
  46.5   183443   4940	       46500             510 
  47.5   181574   4960	       47500             375 
  48.5   180871   5050	       48500             360 
  49.5   189550   4860	       49500             320 
  50.5   184259   4690	       50500             460 
  51.5   185599   4690	       51500             461 
  52.5   188796   4950	       52500             540 
  53.5   191913   4680	       53500             571 
  54.5   192090   4973	       54500             460 
  55.5   194188   4890	       55500             410 
  56.5   196215   4680	       56500             463 
  57.5   192563   4380	       57500             655 
  58.5   193749   4630	       58500             460 
  59.5   196000   4960	       59500             483 
  60.5   193529   4840	       60500             443 
  61.5   194966   4830	       61500             343 
  62.5   196082   4400	       62500             514 
  63.5   192743   4410	       63500             240 
  64.5   189329   4640	       64500             413 
  65.5   193357   4310	       65500             372 
  66.5   189632   4740	       66500             620 
  67.5   193176   8597	       67500             830 
  68.5   194337   4740	       68500             380 
  69.5   192757   9451	       69500             870 
  70.5   195440   4240	       70500             420 
  71.5   196810   4760	       71500             480 
  72.5   198733   4410	       72500             400 
  73.5   201888   4460	       73500             540 
  74.5   204166   4330	       74500             420 
  75.5   200974   4560	       75500             460 
  76.5   203869   4030	       76500             350 
  77.5   203263   4900	       77500             395 
  78.5   198961   5830	       78500             580 
  79.5   201562   4530	       79500             540 
  80.5   202758   5260	       80500             460 
  81.5   208609   4520	       81500             450 
  82.5   206831   4150	       82500             370 
  83.5   211606   4551	       83500             450 
  84.5   208233   3990	       84500             360 
  85.5   207552   4460	       85500             463 
  86.5   211381   4120	       86500             440 
  87.5   210440   4390	       87500             470 
  88.5   211712   3840	       88500             490 
  89.5   210279   4130	       89500             610 
  90.5   208054   4470	       90500             462 
  91.5   213833   4510	       91500             410 
  92.5   217909   4420	       92500             372 
  93.5   216626   4280	       93500             415 
  94.5   217169   4490	       94500             473 
  95.5   216667   4780	       95500             480 
  96.5   212190   4350	       96500             610 
  97.5   217047   4960	       97500             380 
  98.5   218296   4610	       98500             600 
  99.5   213814   4730	       99500             440 
 100.5   216961   4550	      100500             501 
 101.5   225314   4730	      101500             480 
 102.5   220119   4770	      102500             520 
 103.5   217977   4990	      103500             470 
 104.5   223062   4850	      104500             470 
 105.5   224769   5100	      105500             512 
 106.5   224972   4670	      106500             520 
 107.5   224784   5150	      107500             400 
 108.5   230580   5160	      108500             410 
 109.5   223065   5330	      109500             550 
 110.5   220949   5090	      110500             480 
 111.5   227747   4840	      111500             500 
 112.5   226897   5360	      112500             560 
 113.5   223365   4920	      113500             690 
 114.5   227135   4860	      114500             510 
 115.5   227475   5260	      115500             590 
 116.5   227063   4910	      116500             430 
 117.5   231529   5360	      117500             560 
 118.5   228957   5280	      118500             640 
 119.5   229150   5530	      119500             570 
 120.5   227041   5410	      120500             530 
 121.5   235506   5182	      121500             650 
 122.5   230795   5370	      122500             450 
 123.5   230165   5600	      123500             560 
 124.5   232153   5610	      124500             590 
 125.5   234931   5280	      125500             550 
 126.5   232823   5940	      126500             710 
 127.5   231513   6080	      127500             630 
 128.5   234558   5877	      128500             610 
 129.5   235017   5520	      129500             610 
 130.5   233628   6120	      130500             690 
 131.5   228899   6391	      131500             540 
 132.5   237361   5930	      132500             532 
 133.5   234008   6170	      133500             770 
 134.5   236007   6040	      134500             743 
 135.5   230582   6310	      135500             670 
 136.5   230933   6320	      136500             720 
 137.5   242563   6020	      137500             600 
 138.5   238789   6100	      138500             750 
 139.5   239030   6080	      139500             623 
 140.5   239448   6780	      140500             560 
 141.5   236458   6540	      141500             840 
 142.5   238666   6580	      142500             423 
 143.5   238020   6210	      143500             661 
 144.5   242844   6294	      144500             680 
 145.5   238821   6620	      145500             710 
 146.5   241129   6970	      146500             690 
 147.5   237046   6160	      147500             680 
 148.5   245317   6410	      148500             792 
 149.5   242986   6350	      149500             790 
 150.5   237265   7030	      150500             520 
 151.5   242207   6550	      151500             590 
 152.5   246728   7280	      152500             712 
 153.5   243496   6670	      153500             820 
 154.5   238541   7150	      154500             780 
 155.5   243979   6840	      155500             730 
 156.5   243379   7240	      156500             770 
 157.5   244585   7280	      157500             600 
 158.5   246008   6910	      158500             910 
 159.5   242159   7340	      159500             620 
 160.5   244376   7470	      160500             601 
 161.5   239565   7150	      161500             745 
 162.5   244202   7380	      162500             770 
 163.5   241575   6860	      163500             682 
 164.5   244898   7730	      164500             653 
 165.5   242719   7470	      165500             803 
 166.5   242503   7632	      166500             713 
 167.5   245147   7217	      167500             812 
 168.5   247594   8403	      168500             870 
 169.5   246503   7970	      169500             800 
 170.5   244144   8300	      170500             840 
 171.5   248736   7610	      171500             980 
 172.5   246386   7691	      172500             810 
 173.5   243362   7750	      173500             962 
 174.5   240233   8130	      174500            1002 
 175.5   244849   7900	      175500             891 
 176.5   247704   7934	      176500             660 
 177.5   245371   8280	      177500             940 
 178.5   249927   8050	      178500             872 
 179.5   247570   8190	      179500             873 
 180.5   241064   8640	      180500             815 
 181.5   248612   8700	      181500            1029 
 182.5   246671   8340	      182500             870 
 183.5   241598   8530	      183500             950 
 184.5   247392   8660	      184500             842 
 185.5   242318   8620	      185500             940 
 186.5   244936   8490	      186500             910 
 187.5   243948   8383	      187500            1070 
 188.5   245197   8680	      188500             830 
 189.5   246036   8720	      189500             922 
 190.5   239791   8710	      190500             960 
 191.5   248296   8830	      191500             980 
 192.5   244269   9160	      192500             900 
 193.5   250159   8780	      193500             980 
 194.5   245024   9030	      194500             820 
 195.5   240644   9143	      195500             990 
 196.5   243273   9430	      196500             980 
 197.5   246214   8800	      197500             880 
 198.5   241512   9030	      198500            1060 
 199.5   245726   9190	      199500            1020 
 200.5   240527   8992	      200500             990 
 201.5   244328   9302	      201500             950 
 202.5   244347   9030	      202500             912 
 203.5   242080   8980	      203500             840 
 204.5   240979   9154	      204500            1080 
 205.5   243609   9933	      205500            1123 
 206.5   244412   9140	      206500            1010 
 207.5   240844   9230	      207500            1010 
 208.5   246580   9750	      208500             880 
 209.5   240229   9380	      209500             940 
 210.5   247287   9990	      210500             900 
 211.5   238370   9921	      211500            1120 
 212.5   241322   9560	      212500             880 
 213.5   239368   9657	      213500            1100 
 214.5   238666   9590	      214500            1002 
 215.5   239356   9763	      215500            1266 
 216.5   239630   9530	      216500            1263 
 217.5   238560   9800	      217500             920 
 218.5   233746  10060	      218500            1101 
 219.5   237557  10080	      219500            1050 
 220.5   243173  10220	      220500            1020 
 221.5   239807   9880	      221500             980 
 222.5   235258  10250	      222500            1100 
 223.5   234260  10330	      223500            1210 
 224.5   239695  10160	      224500            1141 
 225.5   235431  10520	      225500            1130 
 226.5   240458  10300	      226500            1080 
 227.5   238247  10474	      227500            1100 
 228.5   233451  10200	      228500             950 
 229.5   238463  10890	      229500            1060 
 230.5   234938  10460	      230500            1143 
 231.5   232892  11041	      231500            1300 
 232.5   239781   9910	      232500            1220 
 233.5   239691  10630	      233500            1140 
 234.5   235917  11090	      234500            1400 
 235.5   230204  10341	      235500            1020 
 236.5   235595  10420	      236500            1270 
 237.5   229742  10750	      237500             972 
 238.5   231560  10550	      238500            1070 
 239.5   233811  11460	      239500            1260 
 240.5   235679  10660	      240500             980 
 241.5   229416  11490	      241500            1170 
 242.5   229592  10910	      242500            1190 
 243.5   236704  11060	      243500            1210 
 244.5   229961  10860	      244500            1250 
 245.5   233153  11300	      245500            1170 
 246.5   231641  10631	      246500            1102 
 247.5   238897  11081	      247500            1040 
 248.5   225467  10551	      248500            1120 
 249.5   229993  10940	      249500            1423 
 250.5   229972  11391	      250500            1005 
 251.5   231139  11080	      251500            1040 
 252.5   228453  11263	      252500            1140 
 253.5   230782  10970	      253500            1300 
 254.5   231280  11070	      254500            1120 
 255.5   224446  11200	      255500            1410 
 256.5   226051  11820	      256500            1200 
 257.5   223066  11530	      257500            1230 
 258.5   227191  10970	      258500            1190 
 259.5   221888  11060	      259500            1210 
 260.5   224244  11641	      260500            1325 
 261.5   226538  12140	      261500            1180 
 262.5   223802  11750	      262500            1402 
 263.5   224155  11690	      263500            1200 
 264.5   221582  11530	      264500            1470 
 265.5   229042  11272	      265500            1490 
 266.5   226499  11770	      266500            1130 
 267.5   219093  11214	      267500            1132 
 268.5   222590  11921	      268500            1203 
 269.5   221903  11580	      269500            1280 
 270.5   223113  11663	      270500            1160 
 271.5   226459  12100	      271500            1280 
 272.5   218555  11950	      272500            1183 
 273.5   221303  11730	      273500            1270 
 274.5   219256  11640	      274500            1402 
 275.5   222225  11310	      275500            1113 
 276.5   219662  12317	      276500            1220 
 277.5   218009  11390	      277500            1223 
 278.5   215169  11580	      278500            1420 
 279.5   214841  12200	      279500            1210 
 280.5   214351  11581	      280500            1163 
 281.5   216995  11780	      281500            1220 
 282.5   217363  11700	      282500            1260 
 283.5   211880  11940	      283500            1240 
 284.5   212098  11710	      284500            1311 
 285.5   213344  12040	      285500            1288 
 286.5   214661  11780	      286500            1242 
 287.5   209503  12300	      287500            1270 
 288.5   209231  11480	      288500            1332 
 289.5   207937  11840	      289500            1365 
 290.5   215172  12220	      290500            1590 
 291.5   210997  11530	      291500            1320 
 292.5   211852  11830	      292500            1300 
 293.5   211044  11990	      293500            1240 
 294.5   210197  12620	      294500            1430 
 295.5   204404  11630	      295500            1200 
 296.5   203585  11750	      296500            1320 
 297.5   203421  11830	      297500            1360 
 298.5   203711  12180	      298500            1330 
 299.5   205049  12630	      299500            1490 
 300.5   205871  12120	      300500            1230 
 301.5   202640  11567	      301500            1462 
 302.5   203627  11370	      302500            1361 
 303.5   205662  11901	      303500            1255 
 304.5   197349  11407	      304500            1175 
 305.5   204924  11470	      305500            1404 
 306.5   199324  12723	      306500            1092 
 307.5   201271  12191	      307500            1381 
 308.5   196808  11770	      308500            1204 
 309.5   200845  12250	      309500            1282 
 310.5   199786  11920	      310500            1235 
 311.5   195786  12050	      311500            1090 
 312.5   201619  11650	      312500            1280 
 313.5   197976  11420	      313500            1380 
 314.5   194914  12760	      314500            1440 
 315.5   196411  12030	      315500            1070 
 316.5   195700  12250	      316500            1340 
 317.5   195974  12550	      317500            1270 
 318.5   194218  12660	      318500            1171 
 319.5   191187  11690	      319500            1270 
 320.5   194347  11340	      320500            1273 
 321.5   188481  12130	      321500            1320 
 322.5   188511  11931	      322500            1332 
 323.5   194179  12820	      323500            1170 
 324.5   188739  11900	      324500            1249 
 325.5   191146  11960	      325500            1350 
 326.5   192064  12183	      326500            1320 
 327.5   186164  12050	      327500            1300 
 328.5   185989  12180	      328500            1361 
 329.5   189696  12390	      329500            1207 
 330.5   188435  12023	      330500            1202 
 331.5   189172  11840	      331500            1380 
 332.5   184585  11570	      332500            1050 
 333.5   184546  11840	      333500            1380 
 334.5   182539  11860	      334500            1290 
 335.5   185894  12050	      335500            1340 
 336.5   186702  11990	      336500            1411 
 337.5   183168  12570	      337500            1160 
 338.5   182380  11860	      338500            1242 
 339.5   178851  12140	      339500            1190 
 340.5   180042  12110	      340500            1333 
 341.5   174308  11640	      341500            1400 
 342.5   181145  11947	      342500            1240 
 343.5   178428  12000	      343500            1480 
 344.5   183037  12010	      344500            1440 
 345.5   177135  11390	      345500            1490 
 346.5   174045  12030	      346500            1300 
 347.5   176820  11620	      347500            1289 
 348.5   175372  12050	      348500            1470 
 349.5   180383  11830	      349500            1350 
 350.5   174108  11678	      350500            1152 
 351.5   174375  12080	      351500            1363 
 352.5   174962  11601	      352500            1320 
 353.5   175531  10800	      353500            1170 
 354.5   170135  11402	      354500            1222 
 355.5   170601  11191	      355500            1340 
 356.5   166214  11570	      356500            1010 
 357.5   169042  11120	      357500            1210 
 358.5   169571  12060	      358500            1290 
 359.5   163603  11350	      359500            1090 
 360.5   165160  11870	      360500            1290 
 361.5   167887  11170	      361500            1150 
 362.5   167674  11400	      362500            1243 
 363.5   169767  11203	      363500            1160 
 364.5   170463  11430	      364500            1030 
 365.5   163153  11640	      365500            1314 
 366.5   158751  11280	      366500            1420 
 367.5   162639  10992	      367500            1160 
 368.5   161804  11633	      368500            1230 
 369.5   161521  11360	      369500            1280 
 370.5   162838  11350	      370500            1000 
 371.5   156284  11110	      371500            1140 
 372.5   163736  10800	      372500            1390 
 373.5   159312  12010	      373500            1140 
 374.5   157893  10950	      374500            1490 
 375.5   157335  11300	      375500            1023 
 376.5   158917  11230	      376500            1470 
 377.5   160254  11110	      377500            1331 
 378.5   153047  10990	      378500            1282 
 379.5   156501  11241	      379500            1330 
 380.5   154981  11150	      380500            1090 
 381.5   149513  10937	      381500            1250 
 382.5   146608  11590	      382500            1150 
 383.5   151114  10540	      383500            1280 
 384.5   151651  10640	      384500            1050 
 385.5   153831  11421	      385500            1320 
 386.5   151340  10650	      386500            1130 
 387.5   148649  11050	      387500            1190 
 388.5   151546  10190	      388500            1040 
 389.5   148767  10634	      389500            1222 
 390.5   149384  10650	      390500             914 
 391.5   147304  10710	      391500            1230 
 392.5   147011  10510	      392500            1080 
 393.5   144000  10110	      393500            1072 
 394.5   143902  10760	      394500            1080 
 395.5   141915  10720	      395500            1145 
 396.5   144475  10070	      396500            1240 
 397.5   146145   9980	      397500            1050 
 398.5   142909  10500	      398500            1093 
 399.5   144024  10760	      399500            1232 
 400.5   140664  10090	      400500            1083 
 401.5   142246  10200	      401500            1230 
 402.5   139330  10441	      402500            1043 
 403.5   141386  10030	      403500            1110 
 404.5   142064  10420	      404500            1130 
 405.5   136117   9780	      405500            1053 
 406.5   137920   9840	      406500            1004 
 407.5   137081   9950	      407500            1150 
 408.5   136667   9950	      408500            1150 
 409.5   134069  10320	      409500            1000 
 410.5   134702  10780	      410500            1020 
 411.5   133725  10280	      411500            1200 
 412.5   136414   9890	      412500            1190 
 413.5   132282  10482	      413500            1070 
 414.5   132300   9780	      414500            1140 
 415.5   131519   9950	      415500             980 
 416.5   130571   9930	      416500             995 
 417.5   127532  10060	      417500            1162 
 418.5   132363  10000	      418500            1162 
 419.5   125235   9680	      419500             990 
 420.5   129897   9541	      420500            1000 
 421.5   126187   9570	      421500            1160 
 422.5   130123   9607	      422500            1151 
 423.5   127409   9470	      423500             980 
 424.5   125630   8770	      424500             873 
 425.5   121287   8940	      425500            1050 
 426.5   122933   9300	      426500            1020 
 427.5   121846   8870	      427500            1160 
 428.5   123709   8920	      428500             930 
 429.5   121664   9200	      429500            1030 
 430.5   121697   8740	      430500             890 
 431.5   119677   9190	      431500             970 
 432.5   119569   8931	      432500            1040 
 433.5   124036   9510	      433500             963 
 434.5   116602   9060	      434500             990 
 435.5   116405   8760	      435500            1203 
 436.5   117623   8290	      436500             980 
 437.5   116146   8600	      437500            1023 
 438.5   114976   8660	      438500             983 
 439.5   118018   8660	      439500            1040 
 440.5   114823   8300	      440500            1010 
 441.5   115513   8890	      441500             960 
 442.5   112827   8011	      442500            1100 
 443.5   114259   8640	      443500             930 
 444.5   110923   8300	      444500             860 
 445.5   112615   8480	      445500            1140 
 446.5   111403   8610	      446500            1077 
 447.5   109464   7737	      447500             990 
 448.5   108091   7850	      448500            1020 
 449.5   112082   8410	      449500            1030 
 450.5   109838   8300	      450500             680 
 451.5   108032   8100	      451500            1063 
 452.5   107810   8160	      452500            1030 
 453.5   104244   8430	      453500             850 
 454.5   105313   7880	      454500             990 
 455.5   106460   7940	      455500             970 
 456.5   104628   7870	      456500             710 
 457.5   102426   7693	      457500            1243 
 458.5   100547   7756	      458500             890 
 459.5    99194   7300	      459500             830 
 460.5    98931   7392	      460500             930 
 461.5    99621   7220	      461500             720 
 462.5   102079   7590	      462500             883 
 463.5    97388   7320	      463500             850 
 464.5   100637   7400	      464500             823 
 465.5    99169   7110	      465500             950 
 466.5    99886   7420	      466500             910 
 467.5    96423   7460	      467500             895 
 468.5    96678   7140	      468500             800 
 469.5    95661   7370	      469500             800 
 470.5    93453   7240	      470500             685 
 471.5    95667   7027	      471500             860 
 472.5    94801   7020	      472500             570 
 473.5    91337   7160	      473500             740 
 474.5    93759   6890	      474500             680 
 475.5    90182   6540	      475500             800 
 476.5    94556   6760	      476500             836 
 477.5    89678   6340	      477500             690 
 478.5    89334   6630	      478500             830 
 479.5    88491   6640	      479500             840 
 480.5    85210   6630	      480500             810 
 481.5    90524   6590	      481500             630 
 482.5    90326   7000	      482500             790 
 483.5    91231   6530	      483500             740 
 484.5    88707   6480	      484500             800 
 485.5    86620   6500	      485500             762 
 486.5    86254   6563	      486500             862 
 487.5    82854   6160	      487500             733 
 488.5    83070   5850	      488500             780 
 489.5    83338   6210	      489500             633 
 490.5    81426   5730	      490500             650 
 491.5    82531   6040	      491500             620 
 492.5    80528   5720	      492500             590 
 493.5    81253   5870	      493500             772 
 494.5    79438   5750	      494500             642 
 495.5    75536   5580	      495500             680 
 496.5    77442   5863	      496500             640 
 497.5    77486   5811	      497500             820 
 498.5    77646   5667	      498500             630 
 499.5    78471   5482	      499500             700 
 500.5    72997   5420	      500500             730 
 501.5    74712   5430	      501500             670 
 502.5    78273   5120	      502500             471 
 503.5    71249   5620	      503500             690 
 504.5    72887   5220	      504500             670 
 505.5    70668   5170	      505500             523 
 506.5    71874   5350	      506500             620 
 507.5    70179   5100	      507500             580 
 508.5    74636   5020	      508500             520 
 509.5    74488   5230	      509500             670 
 510.5    72427   5010	      510500             600 
 511.5    71782   4960	      511500             620 
 512.5    72426   5060	      512500             580 
 513.5    69169   4867	      513500             520 
 514.5    67308   4600	      514500             680 
 515.5    67655   4730	      515500             630 
 516.5    65394   4770	      516500             650 
 517.5    66505   4900	      517500             732 
 518.5    68677   4590	      518500             590 
 519.5    67314   4410	      519500             490 
 520.5    65375   4261	      520500             580 
 521.5    63341   4370	      521500             400 
 522.5    64437   4620	      522500             450 
 523.5    62383   4830	      523500             573 
 524.5    61609   4510	      524500             560 
 525.5    58580   4170	      525500             450 
 526.5    60363   4300	      526500             700 
 527.5    60610   4170	      527500             440 
 528.5    58896   4310	      528500             510 
 529.5    58900   3520	      529500             480 
 530.5    57278   4430	      530500             450 
 531.5    57354   4290	      531500             373 
 532.5    55533   4053	      532500             470 
 533.5    55212   3890	      533500             501 
 534.5    56560   3830	      534500             452 
 535.5    54520   3540	      535500             502 
 536.5    55054   3837	      536500             473 
 537.5    51735   3660	      537500             500 
 538.5    54957   3480	      538500             390 
 539.5    54089   3690	      539500             500 
 540.5    51598   3640	      540500             450 
 541.5    50674   3251	      541500             520 
 542.5    51576   3720	      542500             290 
 543.5    52930   3390	      543500             360 
 544.5    52235   3670	      544500             430 
 545.5    49415   3582	      545500             260 
 546.5    50490   3540	      546500             430 
 547.5    47911   3020	      547500             280 
 548.5    46593   2960	      548500             430 
 549.5    48464   3280	      549500             470 
 550.5    46761   2990	      550500             450 
 551.5    48461   3050	      551500             430 
 552.5    45514   2960	      552500             360 
 553.5    46461   3040	      553500             293 
 554.5    44575   2760	      554500             320 
 555.5    44320   2650	      555500             370 
 556.5    44901   2520	      556500             390 
 557.5    44955   2920	      557500             370 
 558.5    43794   2790	      558500             420 
 559.5    42144   2820	      559500             250 
 560.5    42395   2680	      560500             382 
 561.5    42011   2640	      561500             380 
 562.5    41612   2370	      562500             290 
 563.5    40698   2410	      563500             312 
 564.5    38245   2420	      564500             240 
 565.5    38251   2060	      565500             330 
 566.5    39630   2540	      566500             270 
 567.5    37721   2280	      567500             180 
 568.5    38583   2173	      568500             262 
 569.5    41499   2250	      569500             290 
 570.5    38071   2260	      570500             331 
 571.5    36765   2380	      571500             250 
 572.5    36294   2160	      572500             210 
 573.5    35103   2130	      573500             320 
 574.5    36164   2080	      574500             222 
 575.5    35294   2107	      575500             180 
 576.5    34621   1710	      576500             220 
 577.5    34467   1780	      577500             170 
 578.5    33215   2161	      578500             300 
 579.5    33225   1660	      579500             150 
 580.5    33476   1910	      580500             220 
 581.5    31140   1670	      581500             200 
 582.5    30964   1350	      582500             200 
 583.5    32026   1770	      583500             260 
 584.5    30111   1450	      584500             240 
 585.5    30970   1760	      585500             250 
 586.5    30639   1560	      586500             200 
 587.5    28726   1650	      587500             268 
 588.5    29885   1680	      588500             140 
 589.5    27531   1390	      589500             150 
 590.5    28111   1450	      590500             240 
 591.5    28924   1440	      591500             210 
 592.5    26617   1550	      592500             190 
 593.5    28218   1450	      593500             140 
 594.5    26550   1130	      594500             160 
 595.5    26366   1250	      595500             190 
 596.5    26022   1200	      596500             220 
 597.5    24868   1350	      597500             140 
 598.5    25189   1160	      598500             170 
 599.5    25093   1180	      599500             140 
 600.5    23610   1370	      600500              80 
 601.5    23101   1340	      601500             140 
 602.5    22770   1190	      602500             250 
 603.5    22798   1100	      603500             120 
 604.5    22524   1150	      604500             130 
 605.5    23092   1010	      605500             110 
 606.5    20587   1200	      606500             130 
 607.5    21067   1110	      607500             190 
 608.5    20030    730	      608500             170 
 609.5    19807    840	      609500              90 
 610.5    19744   1040	      610500              80 
 611.5    19693    720	      611500             120 
 612.5    19727    790	      612500             100 
 613.5    19553    740	      613500             110 
 614.5    17475    670	      614500             140 
 615.5    18950    780	      615500              90 
 616.5    17182    710	      616500             120 
 617.5    17553    720	      617500              70 
 618.5    17334    620	      618500             100 
 619.5    16946    530	      619500             170 
 620.5    17153    480	      620500             100 
 621.5    14879    530	      621500              50 
 622.5    16606    550	      622500              60 
 623.5    15240    650	      623500             130 
 624.5    15725    550	      624500              80 
 625.5    14950    420	      625500             120 
 626.5    14920    550	      626500             110 
 627.5    14320    470	      627500              20 
 628.5    13366    460	      628500              20 
 629.5    13516    430	      629500              50 
 630.5    12746    390	      630500              80 
 631.5    14410    510	      631500              80 
 632.5    12290    310	      632500              70 
 633.5    12783    410	      633500             100 
 634.5    11885    380	      634500              40 
 635.5    11385    370	      635500             110 
 636.5    11512    340	      636500              70 
 637.5    11176    261	      637500              40 
 638.5    10673    190	      638500              10 
 639.5    10297    260	      639500              30 
 640.5     9121    340	      640500              50 
 641.5    10746    260	      641500              20 
 642.5     9490    200	      642500              30 
 643.5     8782    150	      643500              40 
 644.5    10469    190	      644500              30 
 645.5     9427    210	      645500              50 
 646.5     8958    200	      646500              20 
 647.5     7797    270	      647500              20 
 648.5     9103    130	      648500              10 
 649.5     8369    170	      649500              30 
 650.5     7498    110	      650500              50 
 651.5     6452    140	      651500              30 
 652.5     6314    110	      652500              20 
 653.5     7644    140	      653500              20 
 654.5     7319    110	      654500              10 
 655.5     6004     90	      655500               0 
 656.5     6384    100	      656500              40 
 657.5     6288    110	      657500              20 
 658.5     6500     70	      658500              10 
 659.5     6311     50	      659500              20 
 660.5     5970     70	      660500              30 
 661.5     5744     40	      661500              20 
 662.5     5305     30	      662500              10 
 663.5     4523     50	      663500              20 
 664.5     4938     70	      664500              10 
 665.5     4648     40	      665500              10 
 666.5     4047     40	      666500              10 
 667.5     3699     40	      667500              10 
 668.5     4087     30	      668500               0 
 669.5     4316     30	      669500              10 
 670.5     3593     30	      670500               0 
 671.5     3923     20	      671500              10 
 672.5     3610     20	      672500              20 
 673.5     2979     30	      673500               0 
 674.5     3000     10	      674500               0 
 675.5     2969     10	      675500               0 
 676.5     3165     10	      676500               0 
 677.5     2760     20	      677500               0 
 678.5     2743     10	      678500              10 
 679.5     2771     10	      679500               0 
 680.5     1885     20	      680500               0 
 681.5     2161      0	      681500               0 
 682.5     2789      0	      682500              10 
 683.5     2254      0	      683500               0 
 684.5     2128      0	      684500               0 
 685.5     1863      0	      685500               0 
 686.5     1521      0	      686500               0 
 687.5     1273     10	      687500               0 
 688.5     1952      0	      688500               0 
 689.5     2024      0	      689500               0 
 690.5     1366      0	      690500               0 
 691.5     1127      0	      691500               0 
 692.5     1156      0	      692500               0 
 693.5     1061      0	      693500               0 
 694.5      773      0	      694500               0 
 695.5      888      0	      695500               0 
 696.5      762      0	      696500               0 
 697.5      893      0	      697500               0 
 698.5      653      0	      698500               0 
 699.5      458      0	      699500               0 
 700.5      591      0	      700500               0 
 701.5      580      0	      701500               0 
 702.5      531      0	      702500               0 
 703.5      282      0	      703500               0 
 704.5      366      0	      704500               0 
 705.5      376      0	      705500               0 
 706.5      534      0	      706500               0 
 707.5      312      0	      707500               0 
 708.5      237      0	      708500               0 
 709.5      366      0	      709500               0 
 710.5      280      0	      710500               0 
 711.5      476      0	      711500               0 
 712.5        0      0	      712500               0 
 713.5        0      0	      713500               0 
 714.5        0      0	      714500               0 
